# Temp     Magnetization
1   0.9998   nan
1.05   1   nan
1.1   0.9996   nan
1.15   0.9996   nan
1.2   0.9992   nan
1.25   0.9994   nan
1.3   0.9988   nan
1.35   0.999   nan
1.4   0.998   nan
1.45   0.9972   nan
1.5   0.9968   nan
1.55   0.9968   nan
1.6   0.9954   nan
1.65   0.9954   nan
1.7   0.9954   nan
1.75   0.9918   nan
1.8   0.9912   nan
1.85   0.991   nan
1.9   0.9856   nan
1.95   0.9868   nan
2   0.9872   nan
2.05   0.9838   nan
2.1   0.9798   nan
2.15   0.977   nan
2.2   0.9742   nan
2.25   0.971   nan
2.3   0.9694   nan
2.35   0.9622   0.00104471
2.4   0.962   0.00157528
2.45   0.9618   0.00204491
2.5   0.9506   0.00229887
2.55   0.9452   0.00280035
2.6   0.9398   0.00309013
2.65   0.9372   0.00338552
2.7   0.9318   0.00367615
2.75   0.9122   0.00395446
2.8   0.9172   0.00442108
2.85   0.9172   0.00471017
2.9   0.8912   0.00491636
2.95   0.902   0.00532025
3   0.8862   0.00564159
3.05   0.8724   0.00595689
3.1   0.8706   0.00627662
3.15   0.8506   0.00650759
3.2   0.8534   0.00676665
3.25   0.8456   0.00709674
3.3   0.8244   0.00733869
3.35   0.812   0.0075666
3.4   0.8154   0.0080386
3.45   0.7886   0.00818992
3.5   0.7976   0.00856015
3.55   0.789   0.00886479
3.6   0.7544   0.00913339
3.65   0.7644   0.00927077
3.7   0.745   0.0095611
3.75   0.744   0.00975052
